SpectraSuite Data File
++++++++++++++++++++++++++++++++++++
Date: Mon Dec 07 11:51:37 CET 2020
User: kruno
Dark Spectrum Present: Yes
Reference Spectrum Present: Yes
Number of Sampled Component Spectra: 1
Spectrometers: HR4C252
Integration Time (usec): 100000 (HR4C252)
Spectra Averaged: 25 (HR4C252)
Boxcar Smoothing: 0 (HR4C252)
Correct for Electrical Dark: No (HR4C252)
Strobe/Lamp Enabled: No (HR4C252)
Correct for Detector Non-linearity: No (HR4C252)
Correct for Stray Light: No (HR4C252)
Number of Pixels in Processed Spectrum: 3648
>>>>>Begin Processed Spectral Data<<<<<
195.26	0.000
195.53	0.000
195.80	0.000
196.07	-0.000
196.34	-0.000
196.61	0.000
196.88	0.000
197.15	-0.000
197.42	-0.000
197.70	-0.000
197.97	0.000
198.24	0.000
198.51	0.000
198.78	0.000
199.05	0.000
199.32	-0.000
199.59	0.000
199.86	0.000
200.13	0.000
200.40	0.000
200.67	0.000
200.94	0.000
201.21	0.000
201.48	0.000
201.74	0.000
202.01	0.000
202.28	0.000
202.55	0.000
202.82	0.000
203.09	0.000
203.36	0.000
203.63	0.000
203.90	0.000
204.17	0.000
204.44	0.000
204.71	0.000
204.98	0.000
205.25	0.000
205.52	0.000
205.79	0.000
206.06	0.000
206.33	0.000
206.60	0.000
206.87	0.000
207.14	0.000
207.41	0.000
207.68	0.000
207.95	0.000
208.22	0.000
208.49	0.000
208.76	0.000
209.03	0.000
209.30	0.000
209.57	0.000
209.84	0.000
210.11	0.000
210.38	0.000
210.65	0.000
210.92	0.000
211.19	0.000
211.46	0.000
211.73	0.000
212.00	0.000
212.27	0.000
212.54	0.000
212.80	0.000
213.07	0.000
213.34	0.000
213.61	0.000
213.88	0.000
214.15	0.000
214.42	0.000
214.69	0.000
214.96	0.000
215.23	0.000
215.50	0.000
215.77	0.000
216.04	0.000
216.31	0.000
216.58	0.000
216.85	0.000
217.12	0.000
217.39	0.000
217.66	0.000
217.93	0.000
218.19	0.000
218.46	0.000
218.73	0.000
219.00	0.000
219.27	0.000
219.54	0.000
219.81	0.000
220.08	0.000
220.35	0.000
220.62	0.000
220.89	0.000
221.16	0.000
221.43	0.000
221.70	0.000
221.97	0.000
222.23	0.000
222.50	0.000
222.77	0.000
223.04	0.000
223.31	0.000
223.58	0.000
223.85	0.000
224.12	0.000
224.39	0.000
224.66	0.000
224.93	0.000
225.20	0.000
225.46	0.000
225.73	0.000
226.00	0.000
226.27	0.000
226.54	0.000
226.81	0.000
227.08	0.000
227.35	0.000
227.62	0.000
227.89	0.000
228.16	0.000
228.43	0.000
228.69	0.000
228.96	0.000
229.23	0.000
229.50	0.000
229.77	0.000
230.04	0.000
230.31	0.000
230.58	0.000
230.85	0.000
231.12	0.000
231.38	0.000
231.65	0.000
231.92	0.000
232.19	0.000
232.46	0.000
232.73	0.000
233.00	0.000
233.27	0.000
233.54	0.000
233.80	0.000
234.07	0.000
234.34	0.000
234.61	0.000
234.88	0.000
235.15	0.000
235.42	0.000
235.69	0.000
235.96	0.000
236.22	0.000
236.49	0.000
236.76	0.000
237.03	0.000
237.30	0.000
237.57	0.000
237.84	0.000
238.11	0.000
238.37	0.000
238.64	0.000
238.91	0.000
239.18	0.000
239.45	0.000
239.72	0.000
239.99	0.000
240.26	0.000
240.52	0.000
240.79	0.000
241.06	0.000
241.33	0.000
241.60	0.000
241.87	0.000
242.14	0.000
242.40	0.000
242.67	0.000
242.94	0.000
243.21	0.000
243.48	0.000
243.75	0.000
244.02	0.000
244.28	0.000
244.55	0.000
244.82	0.000
245.09	0.000
245.36	0.000
245.63	0.000
245.90	0.000
246.16	0.000
246.43	0.000
246.70	0.000
246.97	0.000
247.24	0.000
247.51	0.000
247.77	0.000
248.04	0.000
248.31	0.000
248.58	0.000
248.85	0.000
249.12	0.000
249.39	0.000
249.65	0.000
249.92	0.000
250.19	-4.127
250.46	5.790
250.73	-3.983
251.00	-8.942
251.26	-6.444
251.53	-27.172
251.80	-3.260
252.07	20.884
252.34	9.557
252.61	13.710
252.87	1.090
253.14	-0.405
253.41	-1.331
253.68	-14.992
253.95	-23.482
254.21	-18.017
254.48	-17.345
254.75	0.432
255.02	5.550
255.29	-22.079
255.56	-13.840
255.82	10.229
256.09	-1.381
256.36	2.360
256.63	-11.021
256.90	-41.912
257.16	-14.071
257.43	-19.172
257.70	-15.760
257.97	9.575
258.24	-1.019
258.50	2.810
258.77	16.193
259.04	-4.822
259.31	-3.825
259.58	-0.895
259.85	3.932
260.11	-1.207
260.38	3.988
260.65	-0.270
260.92	3.819
261.19	0.086
261.45	6.238
261.72	4.422
261.99	3.123
262.26	10.196
262.53	1.519
262.79	-5.686
263.06	-6.527
263.33	0.940
263.60	2.565
263.86	-5.259
264.13	0.479
264.40	0.095
264.67	0.710
264.94	3.224
265.20	1.109
265.47	-0.847
265.74	-3.211
266.01	-0.770
266.28	2.515
266.54	2.896
266.81	-1.784
267.08	0.204
267.35	-0.371
267.61	-0.822
267.88	-1.085
268.15	-0.092
268.42	0.119
268.69	2.299
268.95	1.570
269.22	4.021
269.49	3.414
269.76	0.842
270.02	-1.911
270.29	0.599
270.56	0.936
270.83	1.057
271.09	2.814
271.36	3.261
271.63	4.286
271.90	1.478
272.17	2.072
272.43	1.387
272.70	3.317
272.97	0.618
273.24	1.017
273.50	0.298
273.77	0.125
274.04	-2.174
274.31	0.631
274.57	1.407
274.84	0.484
275.11	-0.274
275.38	1.133
275.64	0.944
275.91	0.262
276.18	2.974
276.45	0.575
276.71	0.046
276.98	0.224
277.25	2.354
277.52	2.643
277.78	2.211
278.05	-0.312
278.32	-0.132
278.59	0.285
278.85	0.883
279.12	1.012
279.39	0.537
279.66	-1.344
279.92	-1.169
280.19	1.867
280.46	0.805
280.73	-0.430
280.99	-0.609
281.26	1.276
281.53	2.183
281.79	3.065
282.06	1.026
282.33	1.094
282.60	2.688
282.86	2.184
283.13	1.002
283.40	2.055
283.67	2.134
283.93	2.437
284.20	1.953
284.47	0.941
284.73	3.284
285.00	2.482
285.27	1.661
285.54	1.195
285.80	0.499
286.07	1.538
286.34	2.144
286.60	1.767
286.87	0.998
287.14	0.060
287.41	-0.864
287.67	-0.322
287.94	-0.330
288.21	1.655
288.47	0.439
288.74	1.705
289.01	0.411
289.28	0.723
289.54	-0.352
289.81	1.665
290.08	0.298
290.34	0.950
290.61	0.513
290.88	1.343
291.15	-0.528
291.41	2.287
291.68	1.495
291.95	1.666
292.21	2.590
292.48	0.076
292.75	-0.237
293.01	0.453
293.28	1.143
293.55	2.075
293.81	1.177
294.08	1.274
294.35	1.324
294.62	2.766
294.88	1.206
295.15	2.266
295.42	2.814
295.68	0.363
295.95	0.781
296.22	-0.690
296.48	2.086
296.75	1.958
297.02	2.388
297.28	1.346
297.55	1.221
297.82	0.862
298.08	3.092
298.35	1.272
298.62	2.659
298.88	0.750
299.15	1.265
299.42	0.941
299.69	1.014
299.95	-0.717
300.22	0.896
300.49	-0.014
300.75	1.762
301.02	1.767
301.29	2.031
301.55	1.486
301.82	-0.735
302.09	0.059
302.35	0.586
302.62	0.547
302.89	0.531
303.15	0.744
303.42	-0.071
303.69	1.926
303.95	2.452
304.22	1.566
304.48	2.333
304.75	2.570
305.02	2.038
305.28	1.137
305.55	0.782
305.82	0.612
306.08	0.362
306.35	1.241
306.62	2.147
306.88	1.687
307.15	1.869
307.42	3.213
307.68	2.490
307.95	3.321
308.22	2.162
308.48	0.303
308.75	1.232
309.02	0.634
309.28	2.928
309.55	0.952
309.81	1.965
310.08	1.479
310.35	1.120
310.61	1.040
310.88	1.316
311.15	0.812
311.41	1.752
311.68	1.914
311.95	3.000
312.21	2.078
312.48	1.443
312.74	2.121
313.01	0.901
313.28	1.043
313.54	0.604
313.81	1.439
314.08	2.428
314.34	1.938
314.61	1.505
314.87	1.920
315.14	1.443
315.41	1.199
315.67	1.403
315.94	2.693
316.21	3.165
316.47	3.072
316.74	1.805
317.00	1.336
317.27	1.388
317.54	1.653
317.80	1.498
318.07	1.683
318.33	1.352
318.60	2.506
318.87	3.889
319.13	3.403
319.40	1.374
319.67	2.379
319.93	2.749
320.20	1.998
320.46	2.064
320.73	2.396
321.00	1.715
321.26	1.970
321.53	1.909
321.79	2.147
322.06	1.727
322.33	0.958
322.59	2.456
322.86	2.327
323.12	2.107
323.39	2.411
323.66	2.829
323.92	2.481
324.19	0.563
324.45	1.175
324.72	1.864
324.99	3.434
325.25	2.737
325.52	1.447
325.78	1.855
326.05	2.069
326.31	1.864
326.58	1.043
326.85	0.218
327.11	1.149
327.38	1.025
327.64	1.182
327.91	1.670
328.18	2.595
328.44	1.502
328.71	1.875
328.97	2.116
329.24	2.164
329.50	2.363
329.77	2.720
330.04	1.371
330.30	2.560
330.57	2.716
330.83	2.475
331.10	2.449
331.36	1.856
331.63	2.268
331.90	0.470
332.16	0.928
332.43	2.404
332.69	2.427
332.96	2.926
333.22	2.798
333.49	2.654
333.75	2.937
334.02	2.095
334.29	1.774
334.55	2.528
334.82	2.396
335.08	2.355
335.35	2.380
335.61	2.768
335.88	2.682
336.15	2.496
336.41	1.201
336.68	2.378
336.94	3.027
337.21	3.476
337.47	2.670
337.74	2.919
338.00	1.205
338.27	3.254
338.53	3.549
338.80	3.068
339.07	1.121
339.33	1.511
339.60	1.608
339.86	3.141
340.13	2.303
340.39	2.405
340.66	3.014
340.92	2.841
341.19	2.618
341.45	2.391
341.72	1.505
341.98	1.966
342.25	3.328
342.52	3.659
342.78	2.220
343.05	2.856
343.31	2.882
343.58	1.921
343.84	1.830
344.11	2.766
344.37	2.452
344.64	1.272
344.90	1.832
345.17	3.080
345.43	2.530
345.70	1.957
345.96	2.896
346.23	1.191
346.49	1.823
346.76	1.426
347.02	2.656
347.29	1.834
347.55	2.882
347.82	1.851
348.09	1.964
348.35	2.925
348.62	2.976
348.88	2.252
349.15	2.637
349.41	1.682
349.68	2.040
349.94	2.832
350.21	2.012
350.47	2.116
350.74	2.073
351.00	1.819
351.27	2.166
351.53	2.100
351.80	2.554
352.06	2.600
352.33	2.517
352.59	3.119
352.86	3.425
353.12	2.643
353.39	2.906
353.65	2.995
353.92	2.498
354.18	2.948
354.45	2.676
354.71	2.507
354.98	2.679
355.24	2.471
355.51	2.218
355.77	2.369
356.04	2.303
356.30	2.131
356.57	1.709
356.83	2.171
357.09	2.133
357.36	2.051
357.62	1.556
357.89	2.886
358.15	3.122
358.42	2.836
358.68	1.804
358.95	2.231
359.21	2.416
359.48	2.312
359.74	2.589
360.01	2.857
360.27	2.605
360.54	2.783
360.80	2.896
361.07	2.641
361.33	2.800
361.60	2.833
361.86	3.423
362.13	2.649
362.39	2.753
362.65	3.105
362.92	2.235
363.18	2.595
363.45	2.211
363.71	2.127
363.98	1.931
364.24	1.889
364.51	2.843
364.77	2.344
365.04	2.785
365.30	3.231
365.57	2.757
365.83	2.635
366.09	2.670
366.36	3.419
366.62	2.884
366.89	2.744
367.15	2.639
367.42	2.353
367.68	2.571
367.95	3.193
368.21	2.797
368.48	2.788
368.74	3.004
369.00	2.849
369.27	3.283
369.53	3.619
369.80	3.395
370.06	3.200
370.33	2.997
370.59	3.612
370.86	3.869
371.12	3.431
371.38	2.998
371.65	2.390
371.91	2.962
372.18	3.006
372.44	2.432
372.71	1.984
372.97	2.411
373.23	2.885
373.50	2.624
373.76	2.645
374.03	1.983
374.29	2.600
374.56	2.418
374.82	2.433
375.08	2.699
375.35	2.227
375.61	2.490
375.88	2.184
376.14	2.382
376.41	2.458
376.67	2.492
376.93	2.477
377.20	2.042
377.46	2.411
377.73	2.765
377.99	3.167
378.25	3.380
378.52	3.200
378.78	2.625
379.05	3.167
379.31	3.347
379.58	3.253
379.84	3.442
380.10	3.194
380.37	2.818
380.63	3.372
380.90	3.522
381.16	3.277
381.42	3.217
381.69	3.890
381.95	4.079
382.22	3.927
382.48	3.745
382.74	3.768
383.01	3.508
383.27	3.617
383.54	3.534
383.80	3.439
384.06	3.368
384.33	3.710
384.59	3.539
384.86	3.454
385.12	3.330
385.38	3.455
385.65	2.930
385.91	2.845
386.18	2.697
386.44	3.009
386.70	3.035
386.97	2.742
387.23	2.877
387.49	2.924
387.76	2.829
388.02	2.635
388.29	2.408
388.55	2.605
388.81	2.541
389.08	2.599
389.34	2.553
389.60	2.508
389.87	2.277
390.13	2.416
390.40	2.540
390.66	2.618
390.92	2.618
391.19	2.936
391.45	2.900
391.71	2.815
391.98	2.662
392.24	3.080
392.51	3.113
392.77	2.761
393.03	2.838
393.30	3.080
393.56	3.223
393.82	3.172
394.09	3.106
394.35	2.694
394.62	2.796
394.88	3.099
395.14	3.038
395.41	2.847
395.67	3.251
395.93	3.291
396.20	2.930
396.46	2.972
396.72	3.004
396.99	2.917
397.25	2.822
397.51	2.887
397.78	3.059
398.04	3.129
398.30	3.039
398.57	3.161
398.83	2.834
399.10	2.988
399.36	2.914
399.62	2.821
399.89	2.756
400.15	2.699
400.41	2.495
400.68	2.693
400.94	2.576
401.20	2.757
401.47	2.411
401.73	2.347
401.99	2.274
402.26	2.274
402.52	2.208
402.78	2.194
403.05	2.150
403.31	2.375
403.57	2.473
403.84	2.461
404.10	2.405
404.36	2.278
404.63	2.344
404.89	2.557
405.15	2.636
405.42	2.449
405.68	2.571
405.94	2.655
406.21	2.852
406.47	3.077
406.73	2.642
407.00	2.557
407.26	2.759
407.52	3.142
407.78	3.480
408.05	3.471
408.31	3.353
408.57	4.015
408.84	3.744
409.10	3.572
409.36	3.634
409.63	4.118
409.89	3.921
410.15	4.192
410.42	4.266
410.68	4.536
410.94	4.500
411.21	4.255
411.47	4.176
411.73	4.598
411.99	4.734
412.26	4.216
412.52	4.458
412.78	4.761
413.05	4.773
413.31	4.984
413.57	5.035
413.84	4.865
414.10	4.736
414.36	4.803
414.62	4.784
414.89	4.733
415.15	4.481
415.41	4.714
415.68	4.541
415.94	4.455
416.20	4.403
416.46	4.337
416.73	4.262
416.99	4.013
417.25	4.047
417.52	4.056
417.78	3.848
418.04	3.859
418.30	3.455
418.57	3.538
418.83	3.603
419.09	3.562
419.36	3.276
419.62	3.136
419.88	3.098
420.14	2.926
420.41	2.880
420.67	2.576
420.93	2.565
421.20	2.434
421.46	2.485
421.72	2.422
421.98	2.586
422.25	2.370
422.51	1.958
422.77	2.254
423.03	2.407
423.30	2.138
423.56	1.962
423.82	2.224
424.08	1.780
424.35	1.812
424.61	1.892
424.87	1.792
425.14	1.732
425.40	2.236
425.66	2.001
425.92	2.124
426.19	2.091
426.45	2.142
426.71	2.126
426.97	1.997
427.24	2.277
427.50	2.227
427.76	1.935
428.02	2.422
428.29	2.543
428.55	2.357
428.81	2.302
429.07	2.507
429.34	2.606
429.60	2.692
429.86	2.606
430.12	2.796
430.39	2.749
430.65	2.907
430.91	3.101
431.17	2.935
431.44	2.946
431.70	3.251
431.96	3.084
432.22	2.923
432.48	3.145
432.75	3.199
433.01	3.178
433.27	3.317
433.53	3.498
433.80	3.663
434.06	3.361
434.32	3.123
434.58	3.289
434.85	3.215
435.11	3.504
435.37	3.152
435.63	3.403
435.89	3.514
436.16	3.357
436.42	3.496
436.68	3.412
436.94	3.443
437.21	3.650
437.47	3.420
437.73	3.461
437.99	3.498
438.25	3.534
438.52	3.332
438.78	3.151
439.04	3.057
439.30	3.341
439.57	3.236
439.83	2.928
440.09	3.019
440.35	2.887
440.61	3.110
440.88	3.322
441.14	3.018
441.40	2.863
441.66	2.913
441.92	2.965
442.19	2.999
442.45	2.888
442.71	2.841
442.97	2.769
443.23	2.968
443.50	2.840
443.76	2.939
444.02	3.013
444.28	3.070
444.54	2.982
444.81	2.897
445.07	3.241
445.33	3.213
445.59	3.182
445.85	2.910
446.12	3.188
446.38	3.160
446.64	3.181
446.90	3.086
447.16	3.380
447.43	3.380
447.69	3.307
447.95	3.591
448.21	3.816
448.47	3.504
448.73	3.634
449.00	3.534
449.26	3.816
449.52	3.876
449.78	3.773
450.04	4.356
450.31	4.186
450.57	4.148
450.83	4.071
451.09	4.249
451.35	4.361
451.61	4.321
451.88	4.277
452.14	4.648
452.40	4.666
452.66	4.597
452.92	4.656
453.18	4.848
453.45	4.943
453.71	5.109
453.97	4.944
454.23	4.979
454.49	5.137
454.75	5.059
455.02	5.097
455.28	5.045
455.54	4.968
455.80	5.051
456.06	5.143
456.32	5.060
456.59	5.333
456.85	5.372
457.11	5.292
457.37	5.251
457.63	5.214
457.89	5.318
458.15	5.288
458.42	5.227
458.68	5.194
458.94	5.293
459.20	5.083
459.46	5.031
459.72	5.157
459.98	5.021
460.25	4.743
460.51	4.851
460.77	4.877
461.03	4.839
461.29	4.578
461.55	4.478
461.81	4.531
462.08	4.457
462.34	4.261
462.60	4.180
462.86	4.174
463.12	4.112
463.38	3.879
463.64	3.789
463.91	3.849
464.17	3.582
464.43	3.507
464.69	3.341
464.95	3.434
465.21	3.182
465.47	3.109
465.73	3.039
466.00	2.915
466.26	2.676
466.52	2.585
466.78	2.638
467.04	2.602
467.30	2.514
467.56	2.363
467.82	2.286
468.09	2.279
468.35	2.219
468.61	2.043
468.87	1.931
469.13	1.819
469.39	1.593
469.65	1.718
469.91	1.736
470.17	1.757
470.44	1.563
470.70	1.590
470.96	1.559
471.22	1.302
471.48	1.413
471.74	1.426
472.00	1.241
472.26	1.261
472.52	1.156
472.79	1.100
473.05	1.246
473.31	1.255
473.57	1.304
473.83	1.371
474.09	1.181
474.35	1.291
474.61	1.319
474.87	1.198
475.13	1.294
475.40	1.350
475.66	1.486
475.92	1.331
476.18	1.609
476.44	1.663
476.70	1.797
476.96	1.868
477.22	1.813
477.48	1.848
477.74	1.827
478.00	1.982
478.26	2.049
478.53	1.963
478.79	2.079
479.05	2.129
479.31	2.154
479.57	2.252
479.83	2.390
480.09	2.363
480.35	2.417
480.61	2.547
480.87	2.582
481.13	2.623
481.39	2.676
481.66	2.849
481.92	2.998
482.18	3.044
482.44	3.180
482.70	3.321
482.96	3.296
483.22	3.215
483.48	3.264
483.74	3.450
484.00	3.578
484.26	3.563
484.52	3.693
484.78	3.690
485.04	3.668
485.30	3.739
485.57	3.866
485.83	3.984
486.09	3.993
486.35	3.974
486.61	4.014
486.87	4.141
487.13	4.181
487.39	4.221
487.65	4.226
487.91	4.294
488.17	4.326
488.43	4.319
488.69	4.426
488.95	4.515
489.21	4.570
489.47	4.386
489.73	4.465
489.99	4.642
490.25	4.486
490.51	4.589
490.78	4.628
491.04	4.676
491.30	4.622
491.56	4.601
491.82	4.727
492.08	4.759
492.34	4.743
492.60	4.710
492.86	4.784
493.12	4.788
493.38	4.736
493.64	4.757
493.90	4.775
494.16	4.743
494.42	4.808
494.68	4.864
494.94	4.861
495.20	4.773
495.46	4.782
495.72	4.738
495.98	4.803
496.24	4.780
496.50	4.768
496.76	4.728
497.02	4.823
497.28	4.869
497.54	4.832
497.80	4.880
498.06	4.864
498.32	4.813
498.58	4.750
498.84	4.862
499.10	4.893
499.36	4.868
499.62	4.938
499.89	4.885
500.15	4.942
500.41	5.000
500.67	5.011
500.93	4.932
501.19	5.042
501.45	5.038
501.71	5.007
501.97	4.951
502.23	5.028
502.49	5.086
502.75	5.173
503.01	5.201
503.27	5.175
503.53	5.248
503.79	5.241
504.05	5.245
504.31	5.232
504.57	5.300
504.83	5.322
505.09	5.347
505.35	5.321
505.61	5.452
505.87	5.497
506.13	5.414
506.39	5.425
506.65	5.518
506.91	5.597
507.17	5.484
507.43	5.693
507.68	5.659
507.94	5.660
508.20	5.625
508.46	5.658
508.72	5.728
508.98	5.679
509.24	5.657
509.50	5.746
509.76	5.891
510.02	5.839
510.28	5.824
510.54	5.851
510.80	5.852
511.06	5.894
511.32	5.841
511.58	5.782
511.84	5.859
512.10	5.908
512.36	5.852
512.62	5.933
512.88	5.963
513.14	5.887
513.40	5.787
513.66	5.862
513.92	5.905
514.18	5.846
514.44	5.830
514.70	5.839
514.96	5.752
515.22	5.761
515.48	5.663
515.74	5.596
516.00	5.680
516.26	5.576
516.52	5.487
516.78	5.519
517.03	5.579
517.29	5.529
517.55	5.418
517.81	5.359
518.07	5.356
518.33	5.260
518.59	5.077
518.85	5.139
519.11	5.138
519.37	5.119
519.63	4.949
519.89	4.856
520.15	4.774
520.41	4.683
520.67	4.721
520.93	4.644
521.19	4.517
521.45	4.385
521.71	4.401
521.96	4.261
522.22	4.323
522.48	4.168
522.74	3.999
523.00	3.900
523.26	3.900
523.52	3.840
523.78	3.588
524.04	3.557
524.30	3.529
524.56	3.405
524.82	3.259
525.08	3.236
525.34	3.174
525.60	3.113
525.85	3.029
526.11	2.790
526.37	2.681
526.63	2.659
526.89	2.575
527.15	2.429
527.41	2.361
527.67	2.380
527.93	2.261
528.19	2.133
528.45	2.048
528.71	2.039
528.97	1.951
529.22	1.904
529.48	1.700
529.74	1.640
530.00	1.540
530.26	1.508
530.52	1.483
530.78	1.339
531.04	1.243
531.30	1.225
531.56	1.217
531.82	1.103
532.07	1.027
532.33	0.957
532.59	1.029
532.85	0.974
533.11	0.893
533.37	0.867
533.63	0.780
533.89	0.734
534.15	0.718
534.41	0.660
534.66	0.648
534.92	0.686
535.18	0.601
535.44	0.700
535.70	0.729
535.96	0.695
536.22	0.647
536.48	0.734
536.74	0.745
536.99	0.643
537.25	0.664
537.51	0.686
537.77	0.694
538.03	0.666
538.29	0.721
538.55	0.699
538.81	0.775
539.07	0.834
539.32	0.864
539.58	0.891
539.84	0.948
540.10	0.996
540.36	0.933
540.62	1.015
540.88	1.146
541.14	1.220
541.39	1.316
541.65	1.364
541.91	1.465
542.17	1.469
542.43	1.527
542.69	1.629
542.95	1.761
543.21	1.763
543.46	1.860
543.72	2.022
543.98	2.112
544.24	2.099
544.50	2.192
544.76	2.292
545.02	2.447
545.28	2.551
545.53	2.634
545.79	2.762
546.05	2.870
546.31	2.926
546.57	3.141
546.83	3.212
547.09	3.350
547.34	3.390
547.60	3.402
547.86	3.496
548.12	3.681
548.38	3.754
548.64	3.887
548.89	4.044
549.15	4.189
549.41	4.251
549.67	4.352
549.93	4.500
550.19	4.651
550.45	4.694
550.70	4.806
550.96	4.929
551.22	5.207
551.48	5.290
551.74	5.344
552.00	5.502
552.25	5.640
552.51	5.586
552.77	5.663
553.03	5.826
553.29	6.029
553.55	6.096
553.80	6.151
554.06	6.231
554.32	6.375
554.58	6.581
554.84	6.618
555.10	6.747
555.35	6.969
555.61	7.031
555.87	7.011
556.13	7.146
556.39	7.305
556.65	7.329
556.90	7.407
557.16	7.419
557.42	7.615
557.68	7.694
557.94	7.685
558.20	7.830
558.45	8.005
558.71	8.008
558.97	7.987
559.23	8.067
559.49	8.207
